File: uv-vis/TiO2_120min.csv
nm; A
800,000000; 0,048894
797,000000; 0,049152
794,000000; 0,049950
791,000000; 0,051155
788,000000; 0,052362
785,000000; 0,053193
782,000000; 0,053522
779,000000; 0,053317
776,000000; 0,052881
773,000000; 0,052676
770,000000; 0,052890
767,000000; 0,053752
764,000000; 0,054988
761,000000; 0,056363
758,000000; 0,057412
755,000000; 0,057939
752,000000; 0,057853
749,000000; 0,057615
746,000000; 0,057698
743,000000; 0,058368
740,000000; 0,059642
737,000000; 0,061215
734,000000; 0,062655
731,000000; 0,063537
728,000000; 0,063867
725,000000; 0,063948
722,000000; 0,064172
719,000000; 0,065125
716,000000; 0,066800
713,000000; 0,068742
710,000000; 0,070458
707,000000; 0,071553
704,000000; 0,072121
701,000000; 0,072606
698,000000; 0,073573
695,000000; 0,075310
692,000000; 0,077664
689,000000; 0,079951
686,000000; 0,081687
683,000000; 0,082827
680,000000; 0,083722
677,000000; 0,085205
674,000000; 0,087547
671,000000; 0,090417
668,000000; 0,093131
665,000000; 0,095221
662,000000; 0,096866
659,000000; 0,098738
656,000000; 0,101557
653,000000; 0,105396
650,000000; 0,109583
647,000000; 0,113469
644,000000; 0,116844
641,000000; 0,120324
638,000000; 0,124783
635,000000; 0,130300
632,000000; 0,136186
629,000000; 0,141918
626,000000; 0,147122
623,000000; 0,152262
620,000000; 0,157946
617,000000; 0,164110
614,000000; 0,169871
611,000000; 0,174324
608,000000; 0,177665
605,000000; 0,180838
602,000000; 0,184673
599,000000; 0,189019
596,000000; 0,193000
593,000000; 0,196425
590,000000; 0,200403
587,000000; 0,205870
584,000000; 0,212567
581,000000; 0,219138
578,000000; 0,225429
575,000000; 0,232307
572,000000; 0,240450
569,000000; 0,249034
566,000000; 0,257155
563,000000; 0,264656
560,000000; 0,272666
557,000000; 0,281030
554,000000; 0,288726
551,000000; 0,295271
548,000000; 0,301296
545,000000; 0,307287
542,000000; 0,312222
539,000000; 0,315462
536,000000; 0,317199
533,000000; 0,318180
530,000000; 0,318108
527,000000; 0,315694
524,000000; 0,311695
521,000000; 0,307321
518,000000; 0,302235
515,000000; 0,295968
512,000000; 0,289719
509,000000; 0,284415
506,000000; 0,279411
503,000000; 0,274162
500,000000; 0,270099
497,000000; 0,267135
494,000000; 0,264060
491,000000; 0,261813
488,000000; 0,261001
485,000000; 0,260198
482,000000; 0,260087
479,000000; 0,261300
476,000000; 0,262597
473,000000; 0,264557
470,000000; 0,267679
467,000000; 0,270522
464,000000; 0,274153
461,000000; 0,278786
458,000000; 0,283134
455,000000; 0,289058
452,000000; 0,295217
449,000000; 0,301565
446,000000; 0,309703
443,000000; 0,317273
440,000000; 0,326420
437,000000; 0,335969
434,000000; 0,345959
431,000000; 0,357614
428,000000; 0,369237
425,000000; 0,383496
422,000000; 0,397307
419,000000; 0,413719
416,000000; 0,429941
413,000000; 0,448205
410,000000; 0,466854
407,000000; 0,487368
404,000000; 0,509202
401,000000; 0,534066
398,000000; 0,562168
395,000000; 0,592791
392,000000; 0,625303
389,000000; 0,662679
386,000000; 0,704785
383,000000; 0,753186
380,000000; 0,811365
377,000000; 0,879013
374,000000; 0,963719
371,000000; 1,071219
368,000000; 1,218558
365,000000; 1,420850
362,000000; 1,699854
359,000000; 1,937378
356,000000; 2,117061
353,000000; 2,194635
350,000000; 2,804864
347,000000; 4,230018
344,000000; 4,269753
341,000000; 4,322324
338,000000; 4,306962
335,000000; 4,329294
332,000000; 4,373724
329,000000; 4,394863
326,000000; 4,411399
323,000000; 4,445828
320,000000; 4,467443
317,000000; 4,475223
314,000000; 4,529475
311,000000; 4,552798
308,000000; 4,565172
305,000000; 4,581076
302,000000; 4,560115
299,000000; 4,604649
296,000000; 4,578662
293,000000; 4,616851
290,000000; 4,612329
287,000000; 4,615291
284,000000; 4,640168
281,000000; 4,637170
278,000000; 4,639910
275,000000; 4,675046
272,000000; 4,688072
269,000000; 4,748186
266,000000; 4,773971
263,000000; 4,806136
260,000000; 4,855063
257,000000; 4,917698
254,000000; 4,912465
251,000000; 4,955833
248,000000; 5,003002
245,000000; 5,017702
242,000000; 5,048017
239,000000; 5,052735
236,000000; 5,027816
233,000000; 5,081493
230,000000; 5,043510
227,000000; 5,047400
224,000000; 5,039378
221,000000; 5,033610
218,000000; 5,025024
215,000000; 5,004244
212,000000; 4,953160
209,000000; 4,896271
206,000000; 4,872658
203,000000; 4,795418
200,000000; 4,736576