File: uv-vis/TiO2_0min.csv
nm; A
800,000000; 0,049935
797,000000; 0,050167
794,000000; 0,050409
791,000000; 0,050668
788,000000; 0,050851
785,000000; 0,051087
782,000000; 0,051398
779,000000; 0,051800
776,000000; 0,052301
773,000000; 0,052810
770,000000; 0,053267
767,000000; 0,053695
764,000000; 0,054039
761,000000; 0,054361
758,000000; 0,054804
755,000000; 0,055322
752,000000; 0,056020
749,000000; 0,056779
746,000000; 0,057567
743,000000; 0,058286
740,000000; 0,058937
737,000000; 0,059534
734,000000; 0,060269
731,000000; 0,061185
728,000000; 0,062304
725,000000; 0,063526
722,000000; 0,064784
719,000000; 0,066141
716,000000; 0,067499
713,000000; 0,069096
710,000000; 0,071056
707,000000; 0,073494
704,000000; 0,076496
701,000000; 0,080133
698,000000; 0,084506
695,000000; 0,090093
692,000000; 0,097511
689,000000; 0,107392
686,000000; 0,120759
683,000000; 0,137952
680,000000; 0,159758
677,000000; 0,185211
674,000000; 0,214132
671,000000; 0,244133
668,000000; 0,272585
665,000000; 0,297007
662,000000; 0,316550
659,000000; 0,330658
656,000000; 0,339893
653,000000; 0,344777
650,000000; 0,346114
647,000000; 0,344492
644,000000; 0,339936
641,000000; 0,332801
638,000000; 0,323646
635,000000; 0,313635
632,000000; 0,304163
629,000000; 0,295969
626,000000; 0,288918
623,000000; 0,283280
620,000000; 0,279206
617,000000; 0,276675
614,000000; 0,275695
611,000000; 0,275580
608,000000; 0,275700
605,000000; 0,275532
602,000000; 0,274789
599,000000; 0,273486
596,000000; 0,271712
593,000000; 0,269476
590,000000; 0,267000
587,000000; 0,264700
584,000000; 0,262658
581,000000; 0,261365
578,000000; 0,260796
575,000000; 0,260848
572,000000; 0,261489
569,000000; 0,262686
566,000000; 0,264365
563,000000; 0,265807
560,000000; 0,266805
557,000000; 0,266914
554,000000; 0,266096
551,000000; 0,263802
548,000000; 0,259758
545,000000; 0,254618
542,000000; 0,248792
539,000000; 0,242261
536,000000; 0,235411
533,000000; 0,228776
530,000000; 0,222458
527,000000; 0,216693
524,000000; 0,211679
521,000000; 0,207520
518,000000; 0,204102
515,000000; 0,201606
512,000000; 0,199914
509,000000; 0,198928
506,000000; 0,198718
503,000000; 0,198948
500,000000; 0,199684
497,000000; 0,200943
494,000000; 0,202593
491,000000; 0,204599
488,000000; 0,207105
485,000000; 0,209917
482,000000; 0,213128
479,000000; 0,216636
476,000000; 0,220388
473,000000; 0,224575
470,000000; 0,229027
467,000000; 0,233662
464,000000; 0,238598
461,000000; 0,243832
458,000000; 0,249729
455,000000; 0,256041
452,000000; 0,262852
449,000000; 0,270504
446,000000; 0,278602
443,000000; 0,287134
440,000000; 0,296368
437,000000; 0,306179
434,000000; 0,316920
431,000000; 0,328153
428,000000; 0,340809
425,000000; 0,354092
422,000000; 0,368754
419,000000; 0,384359
416,000000; 0,401740
413,000000; 0,419434
410,000000; 0,438851
407,000000; 0,459103
404,000000; 0,481102
401,000000; 0,505636
398,000000; 0,534189
395,000000; 0,564936
392,000000; 0,597339
389,000000; 0,634096
386,000000; 0,674746
383,000000; 0,723177
380,000000; 0,780229
377,000000; 0,847709
374,000000; 0,932938
371,000000; 1,042220
368,000000; 1,189910
365,000000; 1,405513
362,000000; 1,701416
359,000000; 1,980418
356,000000; 2,361520
353,000000; 2,642011
350,000000; 3,706910
347,000000; 4,252881
344,000000; 4,293039
341,000000; 4,283787
338,000000; 4,297228
335,000000; 4,379043
332,000000; 4,369408
329,000000; 4,417778
326,000000; 4,433021
323,000000; 4,460674
320,000000; 4,468786
317,000000; 4,479616
314,000000; 4,516489
311,000000; 4,530808
308,000000; 4,549478
305,000000; 4,562364
302,000000; 4,621019
299,000000; 4,605493
296,000000; 4,607675
293,000000; 4,587291
290,000000; 4,596656
287,000000; 4,650866
284,000000; 4,614823
281,000000; 4,653328
278,000000; 4,668164
275,000000; 4,688964
272,000000; 4,679538
269,000000; 4,738928
266,000000; 4,774072
263,000000; 4,800367
260,000000; 4,868550
257,000000; 4,901225
254,000000; 4,924313
251,000000; 4,964436
248,000000; 4,949370
245,000000; 5,009937
242,000000; 5,042729
239,000000; 5,088951
236,000000; 5,074651
233,000000; 5,087105
230,000000; 5,066735
227,000000; 5,045648
224,000000; 5,062831
221,000000; 5,038890
218,000000; 4,990029
215,000000; 4,995121
212,000000; 4,962724
209,000000; 4,923026
206,000000; 4,845136
203,000000; 4,797635
200,000000; 4,727827