File: uv-vis/TiO2_60min.csv
nm; A
800,000000; 0,048037
797,000000; 0,048379
794,000000; 0,048157
791,000000; 0,047631
788,000000; 0,047173
785,000000; 0,047231
782,000000; 0,048073
779,000000; 0,049429
776,000000; 0,050931
773,000000; 0,052003
770,000000; 0,052421
767,000000; 0,052173
764,000000; 0,051702
761,000000; 0,051579
758,000000; 0,052148
755,000000; 0,053543
752,000000; 0,055395
749,000000; 0,057053
746,000000; 0,057880
743,000000; 0,057967
740,000000; 0,057660
737,000000; 0,057718
734,000000; 0,058619
731,000000; 0,060507
728,000000; 0,062789
725,000000; 0,064604
722,000000; 0,065593
719,000000; 0,065843
716,000000; 0,066072
713,000000; 0,067031
710,000000; 0,069145
707,000000; 0,071933
704,000000; 0,074521
701,000000; 0,076296
698,000000; 0,077242
695,000000; 0,078138
692,000000; 0,079811
689,000000; 0,082800
686,000000; 0,086374
683,000000; 0,089671
680,000000; 0,092090
677,000000; 0,093922
674,000000; 0,096206
671,000000; 0,099649
668,000000; 0,104162
665,000000; 0,108960
662,000000; 0,113314
659,000000; 0,117468
656,000000; 0,122297
653,000000; 0,128605
650,000000; 0,136395
647,000000; 0,144686
644,000000; 0,152714
641,000000; 0,160520
638,000000; 0,168762
635,000000; 0,177555
632,000000; 0,186637
629,000000; 0,195101
626,000000; 0,202319
623,000000; 0,208474
620,000000; 0,214317
617,000000; 0,220110
614,000000; 0,225392
611,000000; 0,229609
608,000000; 0,233281
605,000000; 0,237473
602,000000; 0,242693
599,000000; 0,248549
596,000000; 0,254505
593,000000; 0,261251
590,000000; 0,269685
587,000000; 0,279584
584,000000; 0,290306
581,000000; 0,301094
578,000000; 0,312768
575,000000; 0,325538
572,000000; 0,338866
569,000000; 0,352152
566,000000; 0,365501
563,000000; 0,379706
560,000000; 0,394501
557,000000; 0,408435
554,000000; 0,421227
551,000000; 0,433498
548,000000; 0,444707
545,000000; 0,453116
542,000000; 0,458103
539,000000; 0,460265
536,000000; 0,459716
533,000000; 0,455476
530,000000; 0,447620
527,000000; 0,437012
524,000000; 0,424901
521,000000; 0,411128
518,000000; 0,396362
515,000000; 0,381986
512,000000; 0,368835
509,000000; 0,356430
506,000000; 0,344986
503,000000; 0,335291
500,000000; 0,326890
497,000000; 0,319315
494,000000; 0,312794
491,000000; 0,307706
488,000000; 0,303914
485,000000; 0,300696
482,000000; 0,298811
479,000000; 0,298122
476,000000; 0,297517
473,000000; 0,298314
470,000000; 0,300032
467,000000; 0,301595
464,000000; 0,304348
461,000000; 0,307707
458,000000; 0,311125
455,000000; 0,316091
452,000000; 0,321275
449,000000; 0,327010
446,000000; 0,334004
443,000000; 0,341350
440,000000; 0,349668
437,000000; 0,358533
434,000000; 0,368260
431,000000; 0,379312
428,000000; 0,391544
425,000000; 0,404769
422,000000; 0,419340
419,000000; 0,434884
416,000000; 0,452709
413,000000; 0,470701
410,000000; 0,490635
407,000000; 0,511446
404,000000; 0,534570
401,000000; 0,559679
398,000000; 0,590099
395,000000; 0,621702
392,000000; 0,656765
389,000000; 0,696599
386,000000; 0,740566
383,000000; 0,793874
380,000000; 0,854721
377,000000; 0,928155
374,000000; 1,019861
371,000000; 1,139295
368,000000; 1,297374
365,000000; 1,511284
362,000000; 1,846959
359,000000; 2,100395
356,000000; 2,515887
353,000000; 3,211040
350,000000; 3,715596
347,000000; 4,261194
344,000000; 4,283620
341,000000; 4,283199
338,000000; 4,313085
335,000000; 4,331409
332,000000; 4,343527
329,000000; 4,394358
326,000000; 4,441414
323,000000; 4,438009
320,000000; 4,458804
317,000000; 4,509967
314,000000; 4,543200
311,000000; 4,543400
308,000000; 4,553427
305,000000; 4,571344
302,000000; 4,609946
299,000000; 4,605872
296,000000; 4,592933
293,000000; 4,624312
290,000000; 4,629589
287,000000; 4,605491
284,000000; 4,616262
281,000000; 4,618474
278,000000; 4,690395
275,000000; 4,692488
272,000000; 4,699160
269,000000; 4,738731
266,000000; 4,777924
263,000000; 4,775492
260,000000; 4,837751
257,000000; 4,860409
254,000000; 4,941653
251,000000; 4,953308
248,000000; 4,995481
245,000000; 5,023204
242,000000; 5,006476
239,000000; 5,034046
236,000000; 5,071622
233,000000; 5,092301
230,000000; 5,022569
227,000000; 5,060026
224,000000; 5,052002
221,000000; 5,033969
218,000000; 5,024417
215,000000; 5,000909
212,000000; 4,980643
209,000000; 4,911593
206,000000; 4,896650
203,000000; 4,818152
200,000000; 4,721942