File: uv-vis/TiO2_5min.csv
nm; A
800,000000; 0,051283
797,000000; 0,050447
794,000000; 0,050371
791,000000; 0,051525
788,000000; 0,053236
785,000000; 0,055060
782,000000; 0,056174
779,000000; 0,056106
776,000000; 0,055244
773,000000; 0,054028
770,000000; 0,053441
767,000000; 0,054037
764,000000; 0,055703
761,000000; 0,057899
758,000000; 0,059673
755,000000; 0,060309
752,000000; 0,059743
749,000000; 0,058617
746,000000; 0,058141
743,000000; 0,059020
740,000000; 0,061156
737,000000; 0,063807
734,000000; 0,065875
731,000000; 0,066555
728,000000; 0,066073
725,000000; 0,065480
722,000000; 0,065996
719,000000; 0,068235
716,000000; 0,071591
713,000000; 0,074795
710,000000; 0,076592
707,000000; 0,077136
704,000000; 0,077594
701,000000; 0,079487
698,000000; 0,083401
695,000000; 0,088966
692,000000; 0,094784
689,000000; 0,100014
686,000000; 0,105379
683,000000; 0,112787
680,000000; 0,124084
677,000000; 0,139370
674,000000; 0,157729
671,000000; 0,177145
668,000000; 0,197043
665,000000; 0,217381
662,000000; 0,238705
659,000000; 0,260826
656,000000; 0,282097
653,000000; 0,299715
650,000000; 0,312134
647,000000; 0,319782
644,000000; 0,324029
641,000000; 0,325826
638,000000; 0,325476
635,000000; 0,322161
632,000000; 0,316334
629,000000; 0,309470
626,000000; 0,303337
623,000000; 0,299152
620,000000; 0,295883
617,000000; 0,292354
614,000000; 0,289350
611,000000; 0,288904
608,000000; 0,291543
605,000000; 0,295251
602,000000; 0,297900
599,000000; 0,299725
596,000000; 0,302623
593,000000; 0,307171
590,000000; 0,311283
587,000000; 0,313344
584,000000; 0,314851
581,000000; 0,318244
578,000000; 0,323314
575,000000; 0,327735
572,000000; 0,331202
569,000000; 0,335545
566,000000; 0,341958
563,000000; 0,348254
560,000000; 0,352181
557,000000; 0,354414
554,000000; 0,356401
551,000000; 0,356310
548,000000; 0,351588
545,000000; 0,343622
542,000000; 0,335047
539,000000; 0,325586
536,000000; 0,313043
533,000000; 0,299677
530,000000; 0,288245
527,000000; 0,277722
524,000000; 0,265985
521,000000; 0,255810
518,000000; 0,249006
515,000000; 0,242009
512,000000; 0,234987
509,000000; 0,231453
506,000000; 0,229022
503,000000; 0,225205
500,000000; 0,223544
497,000000; 0,224150
494,000000; 0,222990
491,000000; 0,223003
488,000000; 0,225644
485,000000; 0,226221
482,000000; 0,228197
479,000000; 0,232304
476,000000; 0,233886
473,000000; 0,237597
470,000000; 0,242385
467,000000; 0,244890
464,000000; 0,250204
461,000000; 0,255222
458,000000; 0,259389
455,000000; 0,266900
452,000000; 0,271891
449,000000; 0,279495
446,000000; 0,287741
443,000000; 0,294841
440,000000; 0,305254
437,000000; 0,313110
434,000000; 0,324907
431,000000; 0,334822
428,000000; 0,348282
425,000000; 0,360472
422,000000; 0,375942
419,000000; 0,390330
416,000000; 0,408629
413,000000; 0,425182
410,000000; 0,445366
407,000000; 0,464713
404,000000; 0,487423
401,000000; 0,511506
398,000000; 0,540121
395,000000; 0,570989
392,000000; 0,603345
389,000000; 0,641210
386,000000; 0,683164
383,000000; 0,731678
380,000000; 0,789383
377,000000; 0,857837
374,000000; 0,943449
371,000000; 1,055052
368,000000; 1,205921
365,000000; 1,414444
362,000000; 1,723076
359,000000; 2,050690
356,000000; 2,265484
353,000000; 2,588674
350,000000; 3,523281
347,000000; 4,252868
344,000000; 4,276513
341,000000; 4,287537
338,000000; 4,291094
335,000000; 4,357398
332,000000; 4,375965
329,000000; 4,379238
326,000000; 4,426300
323,000000; 4,485311
320,000000; 4,467842
317,000000; 4,469518
314,000000; 4,519415
311,000000; 4,531307
308,000000; 4,576416
305,000000; 4,562530
302,000000; 4,600445
299,000000; 4,596342
296,000000; 4,611089
293,000000; 4,596517
290,000000; 4,616508
287,000000; 4,620649
284,000000; 4,609951
281,000000; 4,664467
278,000000; 4,682872
275,000000; 4,676037
272,000000; 4,703472
269,000000; 4,727481
266,000000; 4,758443
263,000000; 4,812777
260,000000; 4,862944
257,000000; 4,900254
254,000000; 4,916145
251,000000; 4,981486
248,000000; 4,988608
245,000000; 5,028219
242,000000; 5,028026
239,000000; 5,079418
236,000000; 5,058631
233,000000; 5,105602
230,000000; 5,073390
227,000000; 5,052164
224,000000; 5,052026
221,000000; 5,029190
218,000000; 4,992474
215,000000; 4,979747
212,000000; 4,979164
209,000000; 4,914177
206,000000; 4,852734
203,000000; 4,782776
200,000000; 4,700660