File: uv-vis/TiO2_15min.csv
nm; A
800,000000; 0,046803
797,000000; 0,047939
794,000000; 0,049332
791,000000; 0,050662
788,000000; 0,051274
785,000000; 0,051134
782,000000; 0,050489
779,000000; 0,049776
776,000000; 0,049601
773,000000; 0,050236
770,000000; 0,051611
767,000000; 0,053319
764,000000; 0,054728
761,000000; 0,055328
758,000000; 0,055184
755,000000; 0,054576
752,000000; 0,054284
749,000000; 0,054812
746,000000; 0,056433
743,000000; 0,058524
740,000000; 0,060411
737,000000; 0,061473
734,000000; 0,061683
731,000000; 0,061466
728,000000; 0,061665
725,000000; 0,062925
722,000000; 0,065252
719,000000; 0,068041
716,000000; 0,070307
713,000000; 0,071609
710,000000; 0,072147
707,000000; 0,072932
704,000000; 0,074751
701,000000; 0,077957
698,000000; 0,081888
695,000000; 0,085684
692,000000; 0,088782
689,000000; 0,091536
686,000000; 0,095259
683,000000; 0,101048
680,000000; 0,109300
677,000000; 0,119304
674,000000; 0,130433
671,000000; 0,142569
668,000000; 0,156601
665,000000; 0,173207
662,000000; 0,192597
659,000000; 0,213919
656,000000; 0,235137
653,000000; 0,254057
650,000000; 0,269625
647,000000; 0,282124
644,000000; 0,292150
641,000000; 0,299700
638,000000; 0,304275
635,000000; 0,305405
632,000000; 0,303879
629,000000; 0,301261
626,000000; 0,298606
623,000000; 0,296318
620,000000; 0,293688
617,000000; 0,290727
614,000000; 0,288999
611,000000; 0,289845
608,000000; 0,293314
605,000000; 0,297670
602,000000; 0,301837
599,000000; 0,306616
596,000000; 0,313233
593,000000; 0,321506
590,000000; 0,329461
587,000000; 0,336087
584,000000; 0,342726
581,000000; 0,351057
578,000000; 0,360415
575,000000; 0,369379
572,000000; 0,377698
569,000000; 0,387135
566,000000; 0,398186
563,000000; 0,409374
560,000000; 0,418942
557,000000; 0,426478
554,000000; 0,432770
551,000000; 0,436414
548,000000; 0,434959
545,000000; 0,428603
542,000000; 0,419163
539,000000; 0,407412
536,000000; 0,392123
533,000000; 0,374660
530,000000; 0,357268
527,000000; 0,341150
524,000000; 0,324596
521,000000; 0,308510
518,000000; 0,295655
515,000000; 0,284736
512,000000; 0,273719
509,000000; 0,265218
506,000000; 0,259600
503,000000; 0,253759
500,000000; 0,248381
497,000000; 0,246233
494,000000; 0,244178
491,000000; 0,241665
488,000000; 0,242017
485,000000; 0,242499
482,000000; 0,242552
479,000000; 0,245048
476,000000; 0,247021
473,000000; 0,248953
470,000000; 0,253072
467,000000; 0,256093
464,000000; 0,259536
461,000000; 0,264722
458,000000; 0,268880
455,000000; 0,274502
452,000000; 0,280662
449,000000; 0,286848
446,000000; 0,294832
443,000000; 0,302153
440,000000; 0,310880
437,000000; 0,320066
434,000000; 0,330201
431,000000; 0,341346
428,000000; 0,353298
425,000000; 0,366530
422,000000; 0,380680
419,000000; 0,396322
416,000000; 0,413267
413,000000; 0,430966
410,000000; 0,449933
407,000000; 0,470207
404,000000; 0,492261
401,000000; 0,516740
398,000000; 0,545635
395,000000; 0,576326
392,000000; 0,609898
389,000000; 0,647795
386,000000; 0,689693
383,000000; 0,739656
380,000000; 0,797906
377,000000; 0,866219
374,000000; 0,954177
371,000000; 1,062492
368,000000; 1,212541
365,000000; 1,418907
362,000000; 1,729626
359,000000; 2,025981
356,000000; 2,332719
353,000000; 2,522558
350,000000; 3,698441
347,000000; 4,239234
344,000000; 4,289375
341,000000; 4,295737
338,000000; 4,316068
335,000000; 4,369808
332,000000; 4,341975
329,000000; 4,414573
326,000000; 4,437062
323,000000; 4,472189
320,000000; 4,459456
317,000000; 4,459645
314,000000; 4,518012
311,000000; 4,512820
308,000000; 4,595758
305,000000; 4,578999
302,000000; 4,612153
299,000000; 4,606001
296,000000; 4,631120
293,000000; 4,587835
290,000000; 4,608394
287,000000; 4,632181
284,000000; 4,619536
281,000000; 4,659663
278,000000; 4,662301
275,000000; 4,659188
272,000000; 4,713792
269,000000; 4,735080
266,000000; 4,745107
263,000000; 4,790152
260,000000; 4,873129
257,000000; 4,934748
254,000000; 4,902807
251,000000; 4,970742
248,000000; 5,003682
245,000000; 5,028642
242,000000; 5,060284
239,000000; 5,059443
236,000000; 5,076108
233,000000; 5,063519
230,000000; 5,072392
227,000000; 5,066508
224,000000; 5,048287
221,000000; 5,040292
218,000000; 5,002225
215,000000; 4,986508
212,000000; 4,961969
209,000000; 4,912531
206,000000; 4,830432
203,000000; 4,806254
200,000000; 4,718951