File: uv-vis/TiO2_30min.csv
nm; A
800,000000; 0,045931
797,000000; 0,045744
794,000000; 0,046171
791,000000; 0,047182
788,000000; 0,048568
785,000000; 0,049822
782,000000; 0,050660
779,000000; 0,050783
776,000000; 0,050274
773,000000; 0,049546
770,000000; 0,049103
767,000000; 0,049371
764,000000; 0,050483
761,000000; 0,052178
758,000000; 0,053926
755,000000; 0,055164
752,000000; 0,055547
749,000000; 0,055134
746,000000; 0,054525
743,000000; 0,054410
740,000000; 0,055253
737,000000; 0,057027
734,000000; 0,059285
731,000000; 0,061293
728,000000; 0,062426
725,000000; 0,062589
722,000000; 0,062346
719,000000; 0,062489
716,000000; 0,063785
713,000000; 0,066161
710,000000; 0,069063
707,000000; 0,071600
704,000000; 0,073213
701,000000; 0,074012
698,000000; 0,074729
695,000000; 0,076322
692,000000; 0,079202
689,000000; 0,083238
686,000000; 0,087456
683,000000; 0,091171
680,000000; 0,094379
677,000000; 0,097828
674,000000; 0,102685
671,000000; 0,109469
668,000000; 0,118031
665,000000; 0,127611
662,000000; 0,137662
659,000000; 0,148206
656,000000; 0,159423
653,000000; 0,171276
650,000000; 0,183393
647,000000; 0,194917
644,000000; 0,205026
641,000000; 0,213218
638,000000; 0,219601
635,000000; 0,224172
632,000000; 0,227673
629,000000; 0,230485
626,000000; 0,232500
623,000000; 0,233479
620,000000; 0,233471
617,000000; 0,233314
614,000000; 0,234224
611,000000; 0,236751
608,000000; 0,240664
605,000000; 0,244907
602,000000; 0,249297
599,000000; 0,254631
596,000000; 0,261794
593,000000; 0,271135
590,000000; 0,281084
587,000000; 0,290269
584,000000; 0,299512
581,000000; 0,310119
578,000000; 0,322578
575,000000; 0,335281
572,000000; 0,347193
569,000000; 0,359395
566,000000; 0,373243
563,000000; 0,388907
560,000000; 0,404008
557,000000; 0,416679
554,000000; 0,427823
551,000000; 0,438016
548,000000; 0,444628
545,000000; 0,445546
542,000000; 0,441215
539,000000; 0,433643
536,000000; 0,422513
533,000000; 0,407597
530,000000; 0,389923
527,000000; 0,371728
524,000000; 0,354100
521,000000; 0,336427
518,000000; 0,319618
515,000000; 0,304729
512,000000; 0,292164
509,000000; 0,280966
506,000000; 0,270988
503,000000; 0,262774
500,000000; 0,256042
497,000000; 0,250464
494,000000; 0,245441
491,000000; 0,241778
488,000000; 0,239589
485,000000; 0,237730
482,000000; 0,236492
479,000000; 0,236891
476,000000; 0,237267
473,000000; 0,238084
470,000000; 0,240290
467,000000; 0,242319
464,000000; 0,244381
461,000000; 0,247747
458,000000; 0,251283
455,000000; 0,254893
452,000000; 0,259779
449,000000; 0,264802
446,000000; 0,270242
443,000000; 0,276907
440,000000; 0,283392
437,000000; 0,290807
434,000000; 0,299255
431,000000; 0,307749
428,000000; 0,318211
425,000000; 0,328541
422,000000; 0,340792
419,000000; 0,353210
416,000000; 0,367812
413,000000; 0,382122
410,000000; 0,398296
407,000000; 0,415340
404,000000; 0,434110
401,000000; 0,454022
398,000000; 0,478551
395,000000; 0,503824
392,000000; 0,532535
389,000000; 0,563964
386,000000; 0,599821
383,000000; 0,642126
380,000000; 0,691129
377,000000; 0,751740
374,000000; 0,826603
371,000000; 0,924863
368,000000; 1,055206
365,000000; 1,241461
362,000000; 1,501897
359,000000; 1,792726
356,000000; 2,148294
353,000000; 2,458841
350,000000; 3,861546
347,000000; 4,237213
344,000000; 4,283446
341,000000; 4,277810
338,000000; 4,322369
335,000000; 4,341630
332,000000; 4,344236
329,000000; 4,363351
326,000000; 4,421083
323,000000; 4,420905
320,000000; 4,482242
317,000000; 4,492974
314,000000; 4,547387
311,000000; 4,545694
308,000000; 4,570484
305,000000; 4,564559
302,000000; 4,600482
299,000000; 4,620887
296,000000; 4,596059
293,000000; 4,629664
290,000000; 4,632374
287,000000; 4,620095
284,000000; 4,637326
281,000000; 4,627553
278,000000; 4,658312
275,000000; 4,704106
272,000000; 4,720906
269,000000; 4,737371
266,000000; 4,767126
263,000000; 4,796863
260,000000; 4,840031
257,000000; 4,898114
254,000000; 4,936918
251,000000; 4,967274
248,000000; 4,966972
245,000000; 5,006917
242,000000; 5,025443
239,000000; 5,035495
236,000000; 5,083435
233,000000; 5,075855
230,000000; 5,041535
227,000000; 5,065874
224,000000; 5,076567
221,000000; 5,018460
218,000000; 5,018072
215,000000; 5,003437
212,000000; 4,969932
209,000000; 4,879189
206,000000; 4,873379
203,000000; 4,807546
200,000000; 4,716727